#f/Hz	Ueff/mV
1011	7,33
980	7,53
970	7,99
952	8,85
928	10,85
910	13,45
892	18,33
881	23,31
871	30,14
861	44,53
854	64,33
850	85,80
844	125,53
841	149,11
837	149,49
833	120,65
830	96,04
825	71,73
818	54,43
810	41,24
801	34,00
790	28,51
780	25,66
760	22,68
742	21,61
